AP Cora 5001
Software_Version;1.4.1
[SAMPLE]
Sample_Name;Sample1_plexiform_1
Method;
[PARAMETERS]
Instrument_Type;Cora 5001
Instrument_SN;99119713
Last_SST;3/7/2024 1:00:25 PM +00:00
User_Name;labmanager
Measurement_Started;3/7/2024 2:51:13 PM
Measurement_Finished;3/7/2024 2:51:43 PM
Measurement_Saved;3/7/2024 2:51:43 PM
Wavelength;785
Laser_Power;30
Auto_Exposure;False
Exposure_Time;5000
Averaged_Spectra;3
Probe_Type;Regular Probe (785 nm)
Probe_SN;99101107
Dark_Background;True
User_Background_Spectrum;
Spike_Removal;True
Baseline_Correction;False
Smoothing;False
Normalization;None
[SPECTRUM QUALITY]
Quality_Saturation;False
Quality_SBR;NaN
Quality_Temperature;False
[SPECTRUM]
100.00;4599.97
102.00;4519.12
104.00;4409.70
106.00;4277.23
108.00;4127.98
110.00;3967.15
112.00;3790.28
114.00;3591.43
116.00;3401.84
118.00;3201.07
120.00;2999.57
122.00;2807.95
124.00;2620.59
126.00;2447.91
128.00;2284.90
130.00;2136.01
132.00;2005.33
134.00;1879.91
136.00;1767.38
138.00;1668.65
140.00;1571.36
142.00;1492.19
144.00;1428.53
146.00;1359.83
148.00;1298.08
150.00;1247.64
152.00;1216.11
154.00;1183.85
156.00;1152.52
158.00;1127.07
160.00;1104.54
162.00;1087.86
164.00;1081.51
166.00;1067.37
168.00;1054.71
170.00;1044.13
172.00;1037.99
174.00;1032.45
176.00;1023.72
178.00;1021.24
180.00;1014.48
182.00;1008.67
184.00;1006.15
186.00;1002.52
188.00;992.51
190.00;985.54
192.00;987.62
194.00;981.63
196.00;975.09
198.00;977.22
200.00;971.89
202.00;967.02
204.00;969.97
206.00;969.98
208.00;969.56
210.00;966.73
212.00;967.83
214.00;972.07
216.00;969.81
218.00;967.49
220.00;965.11
222.00;965.72
224.00;967.19
226.00;962.69
228.00;963.40
230.00;962.83
232.00;966.07
234.00;962.39
236.00;958.84
238.00;967.01
240.00;969.19
242.00;967.74
244.00;966.10
246.00;962.28
248.00;968.09
250.00;968.47
252.00;967.47
254.00;970.24
256.00;974.46
258.00;969.74
260.00;974.48
262.00;974.17
264.00;977.64
266.00;978.78
268.00;978.58
270.00;980.86
272.00;974.55
274.00;976.11
276.00;978.59
278.00;975.39
280.00;975.08
282.00;975.62
284.00;981.55
286.00;980.67
288.00;976.28
290.00;976.36
292.00;977.58
294.00;977.83
296.00;977.64
298.00;974.52
300.00;976.35
302.00;976.93
304.00;974.17
306.00;974.99
308.00;975.70
310.00;975.64
312.00;974.31
314.00;982.55
316.00;978.91
318.00;977.76
320.00;978.59
322.00;977.17
324.00;974.11
326.00;972.96
328.00;979.73
330.00;977.68
332.00;975.83
334.00;977.49
336.00;978.07
338.00;972.94
340.00;972.02
342.00;974.88
344.00;972.98
346.00;972.70
348.00;975.39
350.00;974.96
352.00;974.25
354.00;975.07
356.00;971.95
358.00;972.86
360.00;970.21
362.00;969.92
364.00;972.48
366.00;967.89
368.00;968.46
370.00;969.20
372.00;964.72
374.00;970.74
376.00;971.84
378.00;973.99
380.00;978.17
382.00;976.25
384.00;982.22
386.00;979.60
388.00;982.80
390.00;977.79
392.00;978.61
394.00;980.33
396.00;976.50
398.00;977.69
400.00;980.06
402.00;977.76
404.00;974.11
406.00;979.73
408.00;988.63
410.00;990.37
412.00;988.06
414.00;987.60
416.00;995.93
418.00;995.51
420.00;995.25
422.00;1003.25
424.00;1007.76
426.00;1009.16
428.00;1011.43
430.00;1012.08
432.00;1011.08
434.00;1007.40
436.00;1008.51
438.00;1010.34
440.00;1016.06
442.00;1016.38
444.00;1010.95
446.00;1014.20
448.00;1011.11
450.00;1009.38
452.00;1001.76
454.00;1000.34
456.00;1001.98
458.00;1001.91
460.00;1000.09
462.00;996.20
464.00;997.35
466.00;994.61
468.00;994.80
470.00;995.94
472.00;989.84
474.00;988.13
476.00;981.48
478.00;977.52
480.00;975.85
482.00;974.80
484.00;975.44
486.00;977.20
488.00;978.67
490.00;974.69
492.00;979.51
494.00;979.63
496.00;972.53
498.00;976.13
500.00;977.05
502.00;970.24
504.00;968.26
506.00;972.08
508.00;976.65
510.00;973.44
512.00;977.99
514.00;979.76
516.00;979.39
518.00;985.18
520.00;984.37
522.00;985.89
524.00;992.37
526.00;984.46
528.00;983.63
530.00;984.85
532.00;987.02
534.00;986.83
536.00;985.82
538.00;986.51
540.00;985.80
542.00;984.35
544.00;988.60
546.00;986.11
548.00;988.27
550.00;988.73
552.00;988.53
554.00;992.29
556.00;993.71
558.00;990.44
560.00;993.25
562.00;996.68
564.00;992.86
566.00;996.21
568.00;1001.89
570.00;1001.72
572.00;1007.18
574.00;1011.24
576.00;1012.04
578.00;1014.42
580.00;1014.34
582.00;1014.23
584.00;1015.24
586.00;1017.94
588.00;1014.09
590.00;1010.28
592.00;1014.21
594.00;1011.06
596.00;1008.60
598.00;1004.56
600.00;999.19
602.00;1001.25
604.00;998.70
606.00;994.26
608.00;994.46
610.00;999.80
612.00;1001.61
614.00;993.41
616.00;988.82
618.00;988.94
620.00;988.96
622.00;987.49
624.00;985.04
626.00;982.61
628.00;976.52
630.00;972.23
632.00;976.00
634.00;970.59
636.00;968.21
638.00;974.15
640.00;974.78
642.00;973.87
644.00;966.40
646.00;968.14
648.00;965.60
650.00;965.34
652.00;970.69
654.00;967.69
656.00;970.42
658.00;972.88
660.00;968.11
662.00;970.29
664.00;970.40
666.00;967.71
668.00;970.69
670.00;970.17
672.00;967.52
674.00;968.83
676.00;968.63
678.00;964.19
680.00;967.32
682.00;966.47
684.00;963.75
686.00;964.03
688.00;963.86
690.00;963.31
692.00;964.66
694.00;970.75
696.00;967.90
698.00;964.64
700.00;964.03
702.00;965.45
704.00;965.22
706.00;966.83
708.00;968.45
710.00;959.46
712.00;960.55
714.00;963.44
716.00;959.26
718.00;962.42
720.00;962.41
722.00;964.47
724.00;960.69
726.00;962.00
728.00;962.97
730.00;963.45
732.00;961.89
734.00;962.76
736.00;960.09
738.00;959.10
740.00;964.61
742.00;958.48
744.00;954.69
746.00;955.71
748.00;960.01
750.00;953.28
752.00;955.99
754.00;958.70
756.00;958.90
758.00;951.99
760.00;956.44
762.00;956.42
764.00;953.90
766.00;955.05
768.00;949.83
770.00;948.43
772.00;952.59
774.00;948.34
776.00;950.20
778.00;947.52
780.00;947.62
782.00;945.37
784.00;949.58
786.00;948.10
788.00;946.73
790.00;948.58
792.00;948.10
794.00;939.25
796.00;945.52
798.00;950.55
800.00;946.55
802.00;941.31
804.00;943.38
806.00;952.55
808.00;950.56
810.00;956.85
812.00;958.73
814.00;958.42
816.00;962.09
818.00;954.75
820.00;951.06
822.00;955.44
824.00;946.90
826.00;948.89
828.00;952.46
830.00;955.11
832.00;955.10
834.00;948.84
836.00;948.86
838.00;949.40
840.00;951.79
842.00;951.70
844.00;957.29
846.00;961.59
848.00;965.73
850.00;967.14
852.00;967.65
854.00;966.34
856.00;965.26
858.00;959.77
860.00;961.07
862.00;960.27
864.00;959.32
866.00;957.92
868.00;960.01
870.00;956.19
872.00;955.54
874.00;959.71
876.00;960.47
878.00;956.53
880.00;961.37
882.00;956.66
884.00;958.29
886.00;958.13
888.00;954.34
890.00;951.16
892.00;955.16
894.00;955.34
896.00;954.54
898.00;955.43
900.00;952.34
902.00;952.42
904.00;943.28
906.00;945.52
908.00;942.84
910.00;948.74
912.00;954.01
914.00;957.10
916.00;956.70
918.00;960.25
920.00;960.59
922.00;959.92
924.00;960.61
926.00;963.37
928.00;969.22
930.00;969.82
932.00;976.98
934.00;980.67
936.00;984.56
938.00;996.14
940.00;1003.89
942.00;1015.65
944.00;1032.20
946.00;1048.99
948.00;1077.22
950.00;1114.25
952.00;1155.85
954.00;1198.52
956.00;1236.31
958.00;1266.92
960.00;1275.09
962.00;1263.87
964.00;1231.20
966.00;1179.05
968.00;1136.53
970.00;1087.26
972.00;1043.32
974.00;1012.27
976.00;986.78
978.00;966.20
980.00;957.14
982.00;950.72
984.00;942.52
986.00;939.76
988.00;935.63
990.00;934.13
992.00;930.99
994.00;929.41
996.00;929.03
998.00;938.06
1000.00;940.00
1002.00;941.73
1004.00;943.73
1006.00;935.44
1008.00;932.51
1010.00;932.22
1012.00;936.78
1014.00;932.63
1016.00;930.54
1018.00;935.19
1020.00;939.14
1022.00;935.78
1024.00;935.71
1026.00;945.40
1028.00;941.36
1030.00;941.37
1032.00;938.99
1034.00;937.55
1036.00;940.62
1038.00;942.31
1040.00;936.04
1042.00;946.23
1044.00;944.87
1046.00;938.72
1048.00;938.77
1050.00;937.54
1052.00;939.93
1054.00;939.68
1056.00;935.41
1058.00;938.12
1060.00;946.34
1062.00;959.32
1064.00;960.84
1066.00;962.30
1068.00;965.45
1070.00;965.67
1072.00;962.80
1074.00;965.69
1076.00;960.72
1078.00;949.43
1080.00;942.61
1082.00;937.86
1084.00;933.11
1086.00;933.31
1088.00;922.99
1090.00;921.92
1092.00;912.54
1094.00;913.70
1096.00;911.97
1098.00;903.66
1100.00;902.76
1102.00;905.58
1104.00;905.79
1106.00;898.82
1108.00;897.15
1110.00;900.30
1112.00;891.17
1114.00;891.28
1116.00;888.01
1118.00;887.29
1120.00;889.33
1122.00;877.28
1124.00;880.99
1126.00;885.25
1128.00;881.78
1130.00;878.50
1132.00;882.08
1134.00;885.99
1136.00;879.76
1138.00;874.56
1140.00;874.68
1142.00;871.31
1144.00;873.45
1146.00;878.04
1148.00;876.88
1150.00;874.06
1152.00;871.82
1154.00;872.15
1156.00;874.90
1158.00;880.15
1160.00;877.54
1162.00;874.26
1164.00;871.99
1166.00;873.75
1168.00;868.86
1170.00;865.92
1172.00;868.13
1174.00;868.72
1176.00;868.84
1178.00;871.13
1180.00;873.64
1182.00;869.36
1184.00;867.62
1186.00;873.88
1188.00;868.15
1190.00;865.14
1192.00;864.66
1194.00;866.24
1196.00;868.54
1198.00;871.32
1200.00;869.77
1202.00;867.58
1204.00;861.22
1206.00;863.39
1208.00;870.29
1210.00;869.68
1212.00;868.12
1214.00;863.67
1216.00;866.98
1218.00;865.78
1220.00;868.97
1222.00;867.40
1224.00;868.41
1226.00;865.13
1228.00;867.60
1230.00;873.05
1232.00;874.64
1234.00;880.26
1236.00;873.67
1238.00;879.13
1240.00;885.77
1242.00;885.41
1244.00;880.93
1246.00;885.75
1248.00;876.13
1250.00;879.53
1252.00;880.87
1254.00;875.37
1256.00;872.07
1258.00;869.48
1260.00;870.97
1262.00;866.68
1264.00;871.25
1266.00;868.55
1268.00;877.11
1270.00;874.51
1272.00;867.21
1274.00;867.48
1276.00;871.30
1278.00;866.16
1280.00;861.56
1282.00;865.03
1284.00;865.51
1286.00;858.22
1288.00;861.97
1290.00;856.90
1292.00;860.03
1294.00;851.59
1296.00;853.75
1298.00;850.10
1300.00;857.28
1302.00;851.15
1304.00;848.03
1306.00;853.60
1308.00;855.27
1310.00;849.68
1312.00;845.31
1314.00;848.37
1316.00;850.25
1318.00;847.71
1320.00;851.38
1322.00;850.79
1324.00;844.17
1326.00;848.34
1328.00;851.66
1330.00;839.16
1332.00;845.18
1334.00;842.68
1336.00;840.24
1338.00;843.32
1340.00;842.80
1342.00;838.56
1344.00;838.46
1346.00;838.51
1348.00;836.15
1350.00;834.31
1352.00;835.63
1354.00;831.31
1356.00;830.93
1358.00;829.72
1360.00;829.91
1362.00;833.21
1364.00;832.51
1366.00;831.27
1368.00;832.31
1370.00;828.56
1372.00;825.14
1374.00;830.35
1376.00;829.89
1378.00;825.47
1380.00;833.70
1382.00;826.01
1384.00;835.07
1386.00;832.82
1388.00;832.59
1390.00;828.40
1392.00;834.00
1394.00;831.81
1396.00;830.83
1398.00;835.06
1400.00;831.25
1402.00;829.91
1404.00;828.40
1406.00;826.10
1408.00;821.14
1410.00;826.78
1412.00;824.67
1414.00;824.35
1416.00;819.49
1418.00;825.54
1420.00;827.64
1422.00;819.15
1424.00;827.59
1426.00;822.27
1428.00;824.88
1430.00;825.32
1432.00;822.43
1434.00;823.65
1436.00;825.87
1438.00;827.51
1440.00;837.51
1442.00;832.21
1444.00;835.27
1446.00;840.32
1448.00;838.67
1450.00;840.12
1452.00;839.02
1454.00;835.26
1456.00;836.64
1458.00;831.77
1460.00;839.46
1462.00;830.27
1464.00;822.97
1466.00;819.86
1468.00;817.27
1470.00;807.85
1472.00;808.14
1474.00;805.37
1476.00;802.41
1478.00;805.23
1480.00;799.19
1482.00;797.61
1484.00;795.00
1486.00;788.98
1488.00;781.59
1490.00;784.06
1492.00;785.33
1494.00;785.27
1496.00;777.26
1498.00;771.65
1500.00;773.69
1502.00;773.31
1504.00;774.81
1506.00;771.96
1508.00;768.57
1510.00;766.59
1512.00;772.49
1514.00;769.56
1516.00;769.10
1518.00;762.74
1520.00;769.14
1522.00;768.51
1524.00;766.23
1526.00;769.92
1528.00;763.65
1530.00;768.14
1532.00;763.09
1534.00;765.27
1536.00;764.65
1538.00;765.37
1540.00;762.70
1542.00;760.39
1544.00;766.84
1546.00;756.01
1548.00;757.19
1550.00;750.21
1552.00;754.20
1554.00;756.98
1556.00;751.56
1558.00;753.51
1560.00;760.35
1562.00;750.85
1564.00;746.43
1566.00;755.68
1568.00;756.56
1570.00;746.69
1572.00;753.70
1574.00;755.17
1576.00;752.19
1578.00;754.07
1580.00;749.55
1582.00;745.21
1584.00;746.50
1586.00;749.15
1588.00;751.32
1590.00;748.55
1592.00;744.51
1594.00;746.07
1596.00;749.26
1598.00;747.38
1600.00;749.95
1602.00;756.00
1604.00;736.08
1606.00;751.19
1608.00;751.31
1610.00;750.98
1612.00;748.47
1614.00;740.19
1616.00;738.48
1618.00;746.77
1620.00;745.01
1622.00;748.74
1624.00;754.06
1626.00;752.35
1628.00;744.75
1630.00;754.95
1632.00;754.25
1634.00;753.15
1636.00;742.53
1638.00;758.74
1640.00;756.39
1642.00;749.04
1644.00;754.06
1646.00;746.52
1648.00;759.62
1650.00;748.86
1652.00;750.68
1654.00;753.48
1656.00;752.67
1658.00;749.26
1660.00;748.39
1662.00;744.47
1664.00;746.73
1666.00;749.46
1668.00;750.88
1670.00;755.80
1672.00;753.86
1674.00;747.04
1676.00;749.18
1678.00;743.88
1680.00;744.20
1682.00;732.62
1684.00;737.93
1686.00;733.11
1688.00;732.28
1690.00;728.61
1692.00;723.18
1694.00;726.55
1696.00;705.13
1698.00;711.24
1700.00;714.96
1702.00;712.18
1704.00;706.13
1706.00;694.07
1708.00;691.52
1710.00;694.39
1712.00;695.80
1714.00;698.65
1716.00;696.09
1718.00;691.59
1720.00;693.69
1722.00;681.44
1724.00;687.39
1726.00;681.50
1728.00;677.69
1730.00;679.07
1732.00;676.73
1734.00;680.65
1736.00;677.44
1738.00;671.57
1740.00;679.83
1742.00;677.81
1744.00;674.76
1746.00;673.28
1748.00;668.60
1750.00;673.24
1752.00;684.44
1754.00;673.28
1756.00;679.83
1758.00;667.40
1760.00;671.70
1762.00;666.82
1764.00;669.62
1766.00;663.68
1768.00;666.82
1770.00;662.96
1772.00;660.44
1774.00;662.20
1776.00;665.67
1778.00;664.61
1780.00;661.20
1782.00;651.62
1784.00;656.34
1786.00;658.88
1788.00;657.27
1790.00;660.76
1792.00;652.75
1794.00;644.54
1796.00;648.45
1798.00;648.69
1800.00;658.10
1802.00;655.63
1804.00;646.99
1806.00;654.31
1808.00;655.51
1810.00;645.01
1812.00;646.87
1814.00;654.39
1816.00;645.31
1818.00;638.22
1820.00;641.60
1822.00;650.87
1824.00;648.11
1826.00;651.40
1828.00;640.18
1830.00;635.90
1832.00;634.33
1834.00;630.70
1836.00;635.64
1838.00;632.36
1840.00;636.47
1842.00;632.60
1844.00;629.11
1846.00;627.31
1848.00;623.20
1850.00;631.62
1852.00;624.07
1854.00;632.02
1856.00;625.46
1858.00;620.21
1860.00;624.87
1862.00;625.81
1864.00;621.72
1866.00;617.46
1868.00;618.76
1870.00;616.98
1872.00;619.78
1874.00;614.96
1876.00;614.75
1878.00;610.89
1880.00;615.86
1882.00;612.15
1884.00;621.07
1886.00;621.16
1888.00;617.74
1890.00;614.62
1892.00;610.02
1894.00;606.19
1896.00;603.97
1898.00;605.51
1900.00;602.88
1902.00;614.77
1904.00;600.75
1906.00;605.25
1908.00;604.38
1910.00;603.54
1912.00;602.80
1914.00;591.56
1916.00;594.34
1918.00;608.79
1920.00;591.68
1922.00;598.57
1924.00;597.85
1926.00;593.65
1928.00;597.37
1930.00;605.78
1932.00;589.63
1934.00;578.87
1936.00;586.45
1938.00;582.97
1940.00;585.10
1942.00;594.94
1944.00;590.64
1946.00;600.47
1948.00;591.73
1950.00;585.45
1952.00;587.50
1954.00;579.55
1956.00;584.91
1958.00;586.77
1960.00;584.80
1962.00;583.51
1964.00;582.03
1966.00;583.87
1968.00;580.52
1970.00;578.17
1972.00;576.44
1974.00;571.77
1976.00;565.92
1978.00;579.31
1980.00;568.48
1982.00;574.00
1984.00;576.81
1986.00;572.37
1988.00;567.61
1990.00;566.36
1992.00;568.83
1994.00;564.20
1996.00;559.51
1998.00;563.69
2000.00;574.28
2002.00;574.16
2004.00;563.08
2006.00;558.93
2008.00;568.02
2010.00;562.90
2012.00;559.04
2014.00;557.04
2016.00;556.62
2018.00;556.36
2020.00;570.65
2022.00;555.77
2024.00;551.43
2026.00;552.98
2028.00;558.69
2030.00;562.31
2032.00;555.85
2034.00;552.13
2036.00;558.06
2038.00;551.99
2040.00;550.82
2042.00;548.33
2044.00;550.92
2046.00;554.62
2048.00;542.54
2050.00;550.56
2052.00;541.57
2054.00;558.32
2056.00;542.61
2058.00;548.45
2060.00;541.99
2062.00;540.36
2064.00;538.49
2066.00;546.45
2068.00;537.71
2070.00;541.88
2072.00;544.71
2074.00;537.38
2076.00;537.21
2078.00;543.24
2080.00;530.08
2082.00;544.53
2084.00;533.96
2086.00;541.48
2088.00;542.07
2090.00;543.17
2092.00;537.39
2094.00;535.45
2096.00;545.24
2098.00;533.72
2100.00;535.61
2102.00;527.50
2104.00;517.58
2106.00;534.56
2108.00;522.50
2110.00;534.53
2112.00;516.81
2114.00;529.29
2116.00;522.88
2118.00;519.39
2120.00;532.50
2122.00;509.86
2124.00;518.81
2126.00;527.99
2128.00;513.00
2130.00;511.80
2132.00;511.24
2134.00;500.18
2136.00;494.29
2138.00;514.04
2140.00;512.57
2142.00;517.62
2144.00;516.64
2146.00;521.61
2148.00;516.99
2150.00;519.80
2152.00;513.92
2154.00;503.16
2156.00;501.99
2158.00;511.96
2160.00;492.12
2162.00;501.20
2164.00;507.20
2166.00;509.03
2168.00;517.80
2170.00;498.35
2172.00;496.65
2174.00;512.36
2176.00;504.99
2178.00;499.84
2180.00;500.63
2182.00;492.62
2184.00;494.45
2186.00;503.05
2188.00;503.65
2190.00;509.97
2192.00;498.50
2194.00;506.66
2196.00;499.96
2198.00;506.72
2200.00;487.04
2202.00;497.45
2204.00;499.49
2206.00;486.22
2208.00;492.87
2210.00;482.16
2212.00;484.29
2214.00;492.41
2216.00;511.92
2218.00;494.27
2220.00;503.59
2222.00;484.79
2224.00;494.01
2226.00;480.61
2228.00;480.54
2230.00;490.06
2232.00;501.41
2234.00;483.31
2236.00;490.65
2238.00;472.64
2240.00;486.45
2242.00;483.34
2244.00;481.23
2246.00;465.83
2248.00;489.74
2250.00;480.51
2252.00;487.97
2254.00;478.75
2256.00;482.33
2258.00;485.28
2260.00;484.36
2262.00;491.73
2264.00;468.46
2266.00;459.91
2268.00;473.92
2270.00;473.70
2272.00;468.21
2274.00;460.58
2276.00;483.17
2278.00;468.96
2280.00;454.06
2282.00;476.14
2284.00;474.03
2286.00;463.18
2288.00;478.80
2290.00;480.26
2292.00;465.83
2294.00;483.26
2296.00;459.26
2298.00;455.58
2300.00;493.30
[ANALYSIS RESULT]
Analysis_Type;None
