AP Cora 5001
Software_Version;1.4.1
[SAMPLE]
Sample_Name;Bov_demin1_1day_3
Method;
[PARAMETERS]
Instrument_Type;Cora 5001
Instrument_SN;99119713
Last_SST;2/13/2024 2:05:45 PM +00:00
User_Name;labmanager
Measurement_Started;2/14/2024 3:31:45 PM
Measurement_Finished;2/14/2024 3:32:46 PM
Measurement_Saved;2/14/2024 3:32:46 PM
Wavelength;785
Laser_Power;30
Auto_Exposure;False
Exposure_Time;10000
Averaged_Spectra;3
Probe_Type;Regular Probe (785 nm)
Probe_SN;99101107
Dark_Background;True
User_Background_Spectrum;
Spike_Removal;True
Baseline_Correction;False
Smoothing;False
Normalization;None
[SPECTRUM QUALITY]
Quality_Saturation;False
Quality_SBR;NaN
Quality_Temperature;False
[SPECTRUM]
100.00;1803.63
102.00;1792.70
104.00;1778.93
106.00;1760.10
108.00;1731.35
110.00;1709.19
112.00;1671.55
114.00;1625.07
116.00;1586.47
118.00;1546.75
120.00;1503.07
122.00;1463.83
124.00;1422.51
126.00;1381.29
128.00;1349.18
130.00;1317.62
132.00;1279.93
134.00;1249.88
136.00;1222.74
138.00;1199.51
140.00;1177.05
142.00;1156.05
144.00;1142.64
146.00;1126.19
148.00;1112.54
150.00;1105.18
152.00;1098.59
154.00;1087.04
156.00;1075.83
158.00;1073.89
160.00;1066.71
162.00;1059.15
164.00;1055.12
166.00;1051.55
168.00;1049.73
170.00;1048.73
172.00;1036.74
174.00;1028.65
176.00;1025.23
178.00;1021.94
180.00;1018.47
182.00;1010.53
184.00;1003.40
186.00;996.58
188.00;993.60
190.00;987.26
192.00;976.97
194.00;981.92
196.00;980.17
198.00;978.03
200.00;964.64
202.00;958.76
204.00;961.18
206.00;957.79
208.00;955.75
210.00;956.00
212.00;951.60
214.00;953.26
216.00;950.68
218.00;949.27
220.00;947.90
222.00;941.66
224.00;939.71
226.00;937.47
228.00;931.48
230.00;931.89
232.00;930.34
234.00;925.90
236.00;932.29
238.00;930.18
240.00;930.20
242.00;926.94
244.00;925.79
246.00;924.75
248.00;927.84
250.00;929.02
252.00;925.66
254.00;930.26
256.00;928.12
258.00;927.58
260.00;929.59
262.00;932.82
264.00;932.01
266.00;938.04
268.00;933.38
270.00;926.33
272.00;934.78
274.00;932.63
276.00;933.68
278.00;935.00
280.00;933.69
282.00;935.85
284.00;932.48
286.00;930.56
288.00;927.93
290.00;929.24
292.00;920.65
294.00;923.76
296.00;926.22
298.00;930.02
300.00;929.30
302.00;924.39
304.00;925.67
306.00;926.14
308.00;924.26
310.00;920.32
312.00;922.18
314.00;922.94
316.00;921.02
318.00;922.76
320.00;915.98
322.00;917.11
324.00;927.36
326.00;919.62
328.00;915.98
330.00;917.76
332.00;917.78
334.00;921.24
336.00;921.39
338.00;918.95
340.00;916.99
342.00;915.78
344.00;920.08
346.00;925.58
348.00;922.30
350.00;920.58
352.00;917.47
354.00;911.97
356.00;914.43
358.00;912.90
360.00;910.60
362.00;910.43
364.00;912.86
366.00;914.05
368.00;908.41
370.00;915.15
372.00;915.84
374.00;914.00
376.00;918.82
378.00;916.01
380.00;915.17
382.00;916.25
384.00;916.93
386.00;912.54
388.00;913.91
390.00;914.31
392.00;915.37
394.00;916.56
396.00;917.47
398.00;917.88
400.00;914.23
402.00;917.87
404.00;919.10
406.00;922.96
408.00;927.69
410.00;931.50
412.00;927.71
414.00;926.60
416.00;931.26
418.00;934.31
420.00;929.53
422.00;936.62
424.00;943.15
426.00;946.42
428.00;942.15
430.00;944.87
432.00;943.94
434.00;941.08
436.00;946.05
438.00;943.16
440.00;941.77
442.00;944.95
444.00;943.94
446.00;943.70
448.00;938.43
450.00;935.31
452.00;935.11
454.00;932.11
456.00;925.70
458.00;922.85
460.00;923.17
462.00;921.02
464.00;925.60
466.00;919.93
468.00;919.08
470.00;918.86
472.00;916.43
474.00;908.80
476.00;907.59
478.00;903.45
480.00;901.66
482.00;900.26
484.00;899.10
486.00;901.81
488.00;902.66
490.00;908.05
492.00;906.43
494.00;908.72
496.00;904.30
498.00;902.39
500.00;900.14
502.00;903.92
504.00;905.95
506.00;907.16
508.00;904.51
510.00;902.38
512.00;899.25
514.00;900.24
516.00;904.45
518.00;908.26
520.00;910.59
522.00;910.52
524.00;913.57
526.00;916.54
528.00;909.64
530.00;913.43
532.00;911.83
534.00;913.68
536.00;912.19
538.00;911.43
540.00;913.27
542.00;911.47
544.00;915.23
546.00;910.67
548.00;910.25
550.00;917.39
552.00;914.66
554.00;918.90
556.00;924.35
558.00;924.86
560.00;927.05
562.00;923.16
564.00;921.74
566.00;924.62
568.00;929.15
570.00;929.62
572.00;930.60
574.00;936.21
576.00;936.01
578.00;937.96
580.00;934.90
582.00;935.01
584.00;937.46
586.00;935.07
588.00;932.17
590.00;935.38
592.00;936.76
594.00;935.70
596.00;933.28
598.00;934.23
600.00;931.81
602.00;924.72
604.00;918.52
606.00;917.63
608.00;920.50
610.00;918.43
612.00;920.31
614.00;911.72
616.00;910.55
618.00;913.98
620.00;914.00
622.00;910.79
624.00;912.42
626.00;905.31
628.00;902.06
630.00;898.55
632.00;896.40
634.00;894.44
636.00;891.01
638.00;890.15
640.00;896.04
642.00;898.70
644.00;893.10
646.00;889.01
648.00;884.77
650.00;887.70
652.00;894.94
654.00;893.12
656.00;895.17
658.00;894.31
660.00;895.07
662.00;893.81
664.00;895.74
666.00;889.88
668.00;886.97
670.00;893.63
672.00;898.24
674.00;897.45
676.00;888.96
678.00;891.41
680.00;892.24
682.00;892.24
684.00;893.74
686.00;888.53
688.00;887.98
690.00;889.06
692.00;894.60
694.00;891.49
696.00;894.74
698.00;895.12
700.00;890.32
702.00;893.81
704.00;888.66
706.00;889.98
708.00;894.29
710.00;893.93
712.00;889.13
714.00;894.24
716.00;889.37
718.00;889.01
720.00;888.67
722.00;889.33
724.00;888.07
726.00;890.03
728.00;889.76
730.00;893.29
732.00;892.78
734.00;889.40
736.00;881.25
738.00;881.58
740.00;886.80
742.00;883.19
744.00;884.06
746.00;886.27
748.00;888.10
750.00;883.61
752.00;879.54
754.00;882.27
756.00;884.01
758.00;878.55
760.00;883.34
762.00;885.25
764.00;880.23
766.00;883.51
768.00;878.57
770.00;870.43
772.00;878.63
774.00;880.48
776.00;877.92
778.00;875.57
780.00;874.79
782.00;876.76
784.00;873.02
786.00;873.85
788.00;879.53
790.00;878.38
792.00;877.88
794.00;875.21
796.00;871.60
798.00;871.76
800.00;872.19
802.00;873.71
804.00;872.49
806.00;874.87
808.00;884.95
810.00;884.35
812.00;889.52
814.00;888.61
816.00;883.65
818.00;883.67
820.00;883.50
822.00;882.37
824.00;881.96
826.00;877.66
828.00;874.97
830.00;877.59
832.00;873.02
834.00;878.93
836.00;882.22
838.00;876.72
840.00;877.30
842.00;879.47
844.00;886.42
846.00;890.97
848.00;904.87
850.00;908.61
852.00;901.55
854.00;902.13
856.00;906.48
858.00;900.54
860.00;904.63
862.00;903.45
864.00;893.73
866.00;893.72
868.00;901.46
870.00;895.78
872.00;892.71
874.00;897.06
876.00;898.67
878.00;896.77
880.00;892.01
882.00;887.22
884.00;882.59
886.00;885.14
888.00;881.88
890.00;880.65
892.00;881.44
894.00;879.92
896.00;878.41
898.00;878.71
900.00;871.06
902.00;870.19
904.00;870.87
906.00;872.04
908.00;869.86
910.00;875.06
912.00;885.07
914.00;887.96
916.00;892.94
918.00;901.13
920.00;909.75
922.00;909.17
924.00;912.39
926.00;908.71
928.00;905.66
930.00;899.19
932.00;900.60
934.00;900.80
936.00;913.11
938.00;915.46
940.00;927.03
942.00;935.82
944.00;941.22
946.00;951.51
948.00;974.19
950.00;997.25
952.00;1028.68
954.00;1062.02
956.00;1086.90
958.00;1108.18
960.00;1105.11
962.00;1092.51
964.00;1067.15
966.00;1028.50
968.00;985.81
970.00;957.78
972.00;922.91
974.00;902.23
976.00;885.80
978.00;867.59
980.00;860.14
982.00;851.76
984.00;852.08
986.00;847.19
988.00;844.71
990.00;842.43
992.00;843.53
994.00;841.48
996.00;839.43
998.00;847.37
1000.00;851.85
1002.00;851.34
1004.00;850.59
1006.00;850.39
1008.00;845.99
1010.00;843.13
1012.00;836.20
1014.00;834.26
1016.00;837.72
1018.00;839.29
1020.00;839.21
1022.00;839.43
1024.00;844.22
1026.00;844.19
1028.00;852.59
1030.00;850.05
1032.00;852.16
1034.00;849.33
1036.00;853.96
1038.00;850.34
1040.00;845.78
1042.00;852.65
1044.00;847.50
1046.00;847.06
1048.00;848.62
1050.00;845.54
1052.00;840.67
1054.00;844.11
1056.00;848.92
1058.00;850.87
1060.00;849.91
1062.00;852.70
1064.00;856.63
1066.00;860.71
1068.00;856.84
1070.00;859.19
1072.00;860.52
1074.00;857.00
1076.00;855.04
1078.00;846.46
1080.00;845.78
1082.00;838.89
1084.00;829.01
1086.00;836.58
1088.00;821.82
1090.00;821.02
1092.00;823.89
1094.00;815.92
1096.00;811.71
1098.00;809.94
1100.00;808.67
1102.00;811.69
1104.00;810.54
1106.00;810.87
1108.00;810.85
1110.00;806.37
1112.00;795.73
1114.00;797.29
1116.00;790.83
1118.00;787.99
1120.00;790.47
1122.00;780.24
1124.00;783.15
1126.00;786.59
1128.00;786.86
1130.00;787.41
1132.00;785.55
1134.00;778.19
1136.00;773.81
1138.00;772.35
1140.00;777.03
1142.00;774.07
1144.00;775.08
1146.00;773.64
1148.00;772.11
1150.00;773.48
1152.00;773.06
1154.00;774.89
1156.00;765.82
1158.00;774.20
1160.00;775.01
1162.00;776.88
1164.00;775.47
1166.00;778.07
1168.00;774.94
1170.00;775.17
1172.00;774.47
1174.00;776.99
1176.00;778.14
1178.00;772.79
1180.00;771.19
1182.00;773.49
1184.00;769.85
1186.00;770.49
1188.00;770.08
1190.00;770.36
1192.00;769.19
1194.00;770.27
1196.00;771.44
1198.00;771.36
1200.00;772.31
1202.00;768.93
1204.00;777.54
1206.00;773.91
1208.00;767.65
1210.00;767.34
1212.00;769.54
1214.00;766.17
1216.00;769.66
1218.00;771.13
1220.00;762.16
1222.00;766.97
1224.00;770.40
1226.00;764.79
1228.00;774.94
1230.00;781.30
1232.00;781.57
1234.00;786.98
1236.00;789.96
1238.00;795.31
1240.00;798.19
1242.00;800.63
1244.00;804.44
1246.00;810.32
1248.00;809.48
1250.00;806.65
1252.00;801.41
1254.00;795.35
1256.00;799.02
1258.00;801.28
1260.00;799.07
1262.00;800.97
1264.00;796.03
1266.00;798.07
1268.00;792.24
1270.00;793.52
1272.00;794.93
1274.00;799.54
1276.00;795.52
1278.00;793.81
1280.00;789.45
1282.00;781.34
1284.00;777.59
1286.00;780.18
1288.00;773.51
1290.00;773.65
1292.00;769.99
1294.00;759.89
1296.00;764.73
1298.00;755.67
1300.00;753.81
1302.00;749.99
1304.00;755.90
1306.00;754.99
1308.00;751.64
1310.00;752.34
1312.00;751.29
1314.00;747.76
1316.00;756.29
1318.00;758.75
1320.00;757.80
1322.00;753.89
1324.00;750.31
1326.00;754.58
1328.00;758.44
1330.00;749.36
1332.00;753.50
1334.00;750.81
1336.00;752.34
1338.00;756.85
1340.00;750.18
1342.00;749.08
1344.00;747.80
1346.00;754.13
1348.00;752.66
1350.00;740.52
1352.00;740.57
1354.00;739.11
1356.00;738.03
1358.00;738.19
1360.00;736.13
1362.00;734.95
1364.00;733.42
1366.00;736.25
1368.00;738.62
1370.00;732.93
1372.00;735.10
1374.00;744.19
1376.00;743.86
1378.00;741.60
1380.00;746.15
1382.00;740.66
1384.00;738.47
1386.00;745.26
1388.00;739.02
1390.00;735.49
1392.00;737.47
1394.00;742.06
1396.00;749.05
1398.00;745.15
1400.00;748.89
1402.00;744.95
1404.00;745.34
1406.00;745.64
1408.00;742.57
1410.00;750.47
1412.00;752.39
1414.00;751.62
1416.00;741.13
1418.00;746.92
1420.00;752.35
1422.00;754.49
1424.00;754.40
1426.00;750.98
1428.00;748.76
1430.00;743.18
1432.00;746.15
1434.00;748.31
1436.00;742.53
1438.00;747.32
1440.00;761.85
1442.00;760.43
1444.00;763.62
1446.00;770.34
1448.00;773.16
1450.00;781.39
1452.00;776.78
1454.00;766.66
1456.00;765.07
1458.00;762.98
1460.00;766.99
1462.00;758.77
1464.00;758.50
1466.00;757.63
1468.00;751.50
1470.00;735.56
1472.00;725.61
1474.00;725.06
1476.00;712.61
1478.00;710.12
1480.00;701.08
1482.00;691.52
1484.00;691.86
1486.00;693.71
1488.00;689.71
1490.00;686.12
1492.00;688.00
1494.00;679.59
1496.00;679.32
1498.00;675.41
1500.00;674.47
1502.00;671.45
1504.00;671.77
1506.00;672.27
1508.00;669.26
1510.00;674.32
1512.00;667.57
1514.00;667.86
1516.00;671.34
1518.00;671.38
1520.00;662.63
1522.00;659.42
1524.00;663.73
1526.00;663.23
1528.00;666.12
1530.00;663.71
1532.00;662.45
1534.00;662.80
1536.00;665.95
1538.00;669.72
1540.00;660.03
1542.00;658.29
1544.00;669.58
1546.00;654.41
1548.00;654.00
1550.00;663.49
1552.00;665.31
1554.00;662.34
1556.00;654.99
1558.00;653.64
1560.00;656.42
1562.00;658.04
1564.00;653.36
1566.00;650.13
1568.00;655.28
1570.00;653.59
1572.00;653.63
1574.00;657.81
1576.00;650.72
1578.00;651.74
1580.00;657.88
1582.00;656.57
1584.00;658.27
1586.00;661.12
1588.00;657.16
1590.00;657.84
1592.00;652.55
1594.00;646.76
1596.00;655.40
1598.00;659.67
1600.00;659.75
1602.00;671.65
1604.00;648.32
1606.00;667.26
1608.00;665.91
1610.00;662.50
1612.00;660.85
1614.00;653.46
1616.00;660.78
1618.00;663.65
1620.00;668.54
1622.00;667.73
1624.00;668.25
1626.00;674.05
1628.00;675.75
1630.00;684.66
1632.00;683.14
1634.00;680.64
1636.00;687.49
1638.00;674.81
1640.00;675.47
1642.00;682.75
1644.00;683.42
1646.00;681.47
1648.00;687.51
1650.00;688.22
1652.00;688.95
1654.00;686.06
1656.00;687.65
1658.00;688.96
1660.00;691.86
1662.00;688.54
1664.00;685.09
1666.00;691.76
1668.00;692.22
1670.00;684.45
1672.00;689.76
1674.00;680.55
1676.00;674.60
1678.00;667.92
1680.00;671.60
1682.00;662.22
1684.00;658.09
1686.00;660.72
1688.00;651.99
1690.00;646.54
1692.00;644.94
1694.00;635.92
1696.00;630.16
1698.00;626.18
1700.00;620.29
1702.00;619.15
1704.00;611.43
1706.00;606.48
1708.00;608.33
1710.00;598.59
1712.00;594.33
1714.00;602.50
1716.00;593.72
1718.00;588.34
1720.00;599.99
1722.00;588.59
1724.00;593.62
1726.00;587.86
1728.00;586.12
1730.00;580.30
1732.00;583.11
1734.00;583.27
1736.00;591.68
1738.00;577.11
1740.00;580.16
1742.00;576.83
1744.00;588.58
1746.00;573.68
1748.00;570.21
1750.00;579.68
1752.00;578.57
1754.00;574.77
1756.00;583.35
1758.00;574.06
1760.00;574.38
1762.00;572.07
1764.00;576.60
1766.00;577.58
1768.00;576.28
1770.00;570.57
1772.00;562.87
1774.00;573.24
1776.00;570.71
1778.00;567.59
1780.00;567.42
1782.00;563.93
1784.00;567.06
1786.00;559.34
1788.00;556.61
1790.00;560.18
1792.00;557.27
1794.00;563.07
1796.00;562.05
1798.00;562.94
1800.00;571.95
1802.00;562.05
1804.00;560.77
1806.00;566.99
1808.00;556.98
1810.00;564.51
1812.00;558.91
1814.00;559.52
1816.00;552.70
1818.00;555.05
1820.00;556.02
1822.00;550.15
1824.00;558.67
1826.00;561.58
1828.00;556.21
1830.00;547.69
1832.00;546.97
1834.00;547.67
1836.00;545.10
1838.00;548.97
1840.00;551.63
1842.00;548.74
1844.00;544.70
1846.00;547.57
1848.00;544.78
1850.00;543.92
1852.00;537.28
1854.00;537.26
1856.00;531.81
1858.00;539.60
1860.00;533.50
1862.00;527.96
1864.00;531.15
1866.00;533.73
1868.00;534.74
1870.00;527.95
1872.00;528.61
1874.00;525.31
1876.00;528.12
1878.00;533.06
1880.00;522.04
1882.00;520.32
1884.00;520.62
1886.00;515.33
1888.00;526.41
1890.00;523.49
1892.00;520.96
1894.00;520.06
1896.00;525.21
1898.00;526.44
1900.00;519.79
1902.00;520.93
1904.00;515.27
1906.00;523.78
1908.00;518.81
1910.00;517.99
1912.00;517.70
1914.00;511.65
1916.00;507.64
1918.00;520.69
1920.00;513.57
1922.00;514.25
1924.00;517.53
1926.00;519.32
1928.00;500.06
1930.00;507.84
1932.00;506.50
1934.00;508.04
1936.00;519.54
1938.00;501.95
1940.00;495.86
1942.00;502.31
1944.00;509.49
1946.00;507.41
1948.00;498.56
1950.00;505.79
1952.00;503.89
1954.00;504.74
1956.00;500.69
1958.00;516.70
1960.00;505.56
1962.00;502.01
1964.00;500.28
1966.00;502.56
1968.00;493.39
1970.00;502.89
1972.00;502.47
1974.00;495.06
1976.00;497.77
1978.00;499.39
1980.00;492.53
1982.00;478.32
1984.00;498.66
1986.00;485.39
1988.00;485.02
1990.00;484.42
1992.00;492.54
1994.00;493.07
1996.00;479.24
1998.00;497.72
2000.00;488.92
2002.00;486.71
2004.00;485.65
2006.00;496.07
2008.00;480.08
2010.00;482.95
2012.00;477.67
2014.00;484.11
2016.00;486.07
2018.00;479.85
2020.00;486.06
2022.00;479.89
2024.00;481.91
2026.00;484.85
2028.00;482.78
2030.00;494.27
2032.00;473.99
2034.00;470.55
2036.00;481.59
2038.00;483.14
2040.00;490.29
2042.00;476.41
2044.00;475.43
2046.00;470.54
2048.00;476.95
2050.00;470.63
2052.00;473.48
2054.00;482.01
2056.00;461.81
2058.00;470.87
2060.00;467.88
2062.00;465.65
2064.00;472.27
2066.00;473.02
2068.00;472.93
2070.00;455.86
2072.00;478.22
2074.00;458.80
2076.00;465.94
2078.00;468.01
2080.00;480.37
2082.00;469.24
2084.00;466.79
2086.00;458.69
2088.00;459.11
2090.00;461.62
2092.00;462.04
2094.00;465.25
2096.00;451.96
2098.00;461.83
2100.00;459.99
2102.00;445.53
2104.00;457.72
2106.00;444.46
2108.00;438.97
2110.00;453.71
2112.00;454.80
2114.00;476.04
2116.00;458.64
2118.00;441.17
2120.00;454.30
2122.00;448.39
2124.00;445.26
2126.00;448.29
2128.00;439.06
2130.00;450.62
2132.00;450.17
2134.00;449.55
2136.00;444.37
2138.00;434.14
2140.00;445.19
2142.00;455.53
2144.00;438.22
2146.00;440.17
2148.00;440.04
2150.00;443.20
2152.00;440.89
2154.00;439.71
2156.00;435.12
2158.00;438.85
2160.00;436.81
2162.00;438.97
2164.00;440.03
2166.00;445.20
2168.00;446.27
2170.00;422.84
2172.00;445.50
2174.00;442.77
2176.00;448.10
2178.00;428.46
2180.00;437.25
2182.00;425.75
2184.00;435.64
2186.00;443.92
2188.00;413.13
2190.00;432.10
2192.00;429.26
2194.00;430.41
2196.00;429.26
2198.00;426.84
2200.00;436.64
2202.00;441.11
2204.00;433.54
2206.00;434.90
2208.00;426.76
2210.00;412.53
2212.00;430.91
2214.00;437.42
2216.00;432.84
2218.00;434.00
2220.00;415.61
2222.00;416.21
2224.00;428.49
2226.00;425.90
2228.00;421.20
2230.00;427.01
2232.00;428.42
2234.00;433.14
2236.00;425.82
2238.00;421.85
2240.00;426.17
2242.00;412.20
2244.00;425.83
2246.00;421.86
2248.00;402.45
2250.00;416.63
2252.00;393.27
2254.00;409.79
2256.00;412.13
2258.00;423.80
2260.00;403.31
2262.00;410.51
2264.00;399.24
2266.00;408.03
2268.00;417.66
2270.00;409.05
2272.00;396.63
2274.00;382.51
2276.00;419.07
2278.00;394.86
2280.00;395.65
2282.00;417.10
2284.00;386.30
2286.00;408.12
2288.00;394.75
2290.00;410.04
2292.00;420.53
2294.00;417.54
2296.00;401.33
2298.00;392.13
2300.00;415.99
[ANALYSIS RESULT]
Analysis_Type;None
