AP Cora 5001
Software_Version;1.4.1
[SAMPLE]
Sample_Name;Bov_demin1_1day_1
Method;
[PARAMETERS]
Instrument_Type;Cora 5001
Instrument_SN;99119713
Last_SST;2/13/2024 2:05:45 PM +00:00
User_Name;labmanager
Measurement_Started;2/14/2024 3:26:15 PM
Measurement_Finished;2/14/2024 3:27:16 PM
Measurement_Saved;2/14/2024 3:27:16 PM
Wavelength;785
Laser_Power;30
Auto_Exposure;False
Exposure_Time;10000
Averaged_Spectra;3
Probe_Type;Regular Probe (785 nm)
Probe_SN;99101107
Dark_Background;True
User_Background_Spectrum;
Spike_Removal;True
Baseline_Correction;False
Smoothing;False
Normalization;None
[SPECTRUM QUALITY]
Quality_Saturation;False
Quality_SBR;NaN
Quality_Temperature;False
[SPECTRUM]
100.00;3460.47
102.00;3393.71
104.00;3321.43
106.00;3228.57
108.00;3126.08
110.00;3016.48
112.00;2898.74
114.00;2770.81
116.00;2634.40
118.00;2509.70
120.00;2395.98
122.00;2273.34
124.00;2169.17
126.00;2070.28
128.00;1976.84
130.00;1877.86
132.00;1797.39
134.00;1717.43
136.00;1641.44
138.00;1580.35
140.00;1522.27
142.00;1471.21
144.00;1428.48
146.00;1387.19
148.00;1347.61
150.00;1314.33
152.00;1286.33
154.00;1269.25
156.00;1247.31
158.00;1230.50
160.00;1218.37
162.00;1204.93
164.00;1190.76
166.00;1182.59
168.00;1171.54
170.00;1162.31
172.00;1155.82
174.00;1147.90
176.00;1135.24
178.00;1126.95
180.00;1120.29
182.00;1113.03
184.00;1108.65
186.00;1096.30
188.00;1088.57
190.00;1087.93
192.00;1079.19
194.00;1074.14
196.00;1063.22
198.00;1052.90
200.00;1052.81
202.00;1051.13
204.00;1050.01
206.00;1042.54
208.00;1044.57
210.00;1035.75
212.00;1034.65
214.00;1031.46
216.00;1026.56
218.00;1026.04
220.00;1022.80
222.00;1021.09
224.00;1012.88
226.00;1007.88
228.00;1010.13
230.00;1006.99
232.00;1003.62
234.00;1000.15
236.00;1001.14
238.00;1002.77
240.00;1009.93
242.00;1001.39
244.00;1001.22
246.00;1003.94
248.00;996.94
250.00;996.73
252.00;995.62
254.00;1002.99
256.00;1000.47
258.00;1002.30
260.00;1009.19
262.00;1007.58
264.00;1005.91
266.00;1005.76
268.00;999.89
270.00;1005.41
272.00;1006.17
274.00;1001.58
276.00;1006.59
278.00;1004.55
280.00;1001.27
282.00;1000.80
284.00;998.92
286.00;1004.57
288.00;1007.74
290.00;1006.65
292.00;1004.81
294.00;997.93
296.00;995.38
298.00;1004.67
300.00;1004.44
302.00;998.51
304.00;999.63
306.00;1000.49
308.00;996.13
310.00;995.40
312.00;995.26
314.00;996.66
316.00;995.94
318.00;990.87
320.00;993.97
322.00;991.85
324.00;994.79
326.00;996.33
328.00;991.71
330.00;995.79
332.00;992.90
334.00;994.18
336.00;994.23
338.00;992.94
340.00;993.98
342.00;991.79
344.00;992.80
346.00;991.34
348.00;992.54
350.00;991.26
352.00;987.39
354.00;989.72
356.00;990.34
358.00;992.06
360.00;986.55
362.00;981.90
364.00;990.42
366.00;988.19
368.00;980.35
370.00;984.52
372.00;984.18
374.00;981.65
376.00;983.28
378.00;984.60
380.00;987.11
382.00;983.69
384.00;987.59
386.00;989.70
388.00;985.54
390.00;991.34
392.00;989.55
394.00;993.55
396.00;991.01
398.00;991.79
400.00;992.98
402.00;993.55
404.00;997.11
406.00;998.50
408.00;997.67
410.00;997.63
412.00;1001.49
414.00;1010.41
416.00;1011.30
418.00;1004.00
420.00;1007.28
422.00;1008.13
424.00;1010.91
426.00;1019.25
428.00;1012.79
430.00;1016.88
432.00;1024.66
434.00;1020.93
436.00;1019.65
438.00;1018.71
440.00;1019.74
442.00;1016.30
444.00;1015.95
446.00;1014.98
448.00;1013.86
450.00;1015.40
452.00;1009.01
454.00;1004.40
456.00;1000.11
458.00;997.57
460.00;1004.48
462.00;996.95
464.00;999.56
466.00;993.23
468.00;989.14
470.00;987.52
472.00;985.04
474.00;980.94
476.00;976.93
478.00;972.90
480.00;977.63
482.00;972.58
484.00;978.21
486.00;981.22
488.00;979.46
490.00;979.67
492.00;980.09
494.00;983.89
496.00;987.23
498.00;980.74
500.00;982.27
502.00;975.66
504.00;976.56
506.00;975.18
508.00;979.50
510.00;983.59
512.00;977.96
514.00;974.26
516.00;981.57
518.00;985.47
520.00;987.89
522.00;987.24
524.00;989.91
526.00;994.59
528.00;990.53
530.00;994.33
532.00;997.57
534.00;999.80
536.00;997.81
538.00;997.24
540.00;992.78
542.00;984.08
544.00;991.67
546.00;991.86
548.00;993.00
550.00;994.86
552.00;994.47
554.00;999.34
556.00;1001.51
558.00;1004.07
560.00;1006.95
562.00;1006.15
564.00;1005.86
566.00;1009.11
568.00;1013.12
570.00;1012.18
572.00;1012.42
574.00;1013.62
576.00;1019.96
578.00;1016.82
580.00;1014.78
582.00;1024.00
584.00;1018.50
586.00;1017.50
588.00;1011.36
590.00;1013.00
592.00;1011.66
594.00;1017.20
596.00;1017.35
598.00;1010.34
600.00;1005.96
602.00;1005.13
604.00;1002.62
606.00;1005.49
608.00;998.88
610.00;997.27
612.00;997.29
614.00;993.30
616.00;992.28
618.00;993.11
620.00;992.11
622.00;992.37
624.00;986.21
626.00;986.37
628.00;981.76
630.00;979.65
632.00;981.32
634.00;973.28
636.00;971.89
638.00;976.72
640.00;974.95
642.00;971.96
644.00;973.67
646.00;973.45
648.00;967.55
650.00;966.87
652.00;973.08
654.00;972.28
656.00;972.54
658.00;975.31
660.00;973.55
662.00;973.77
664.00;978.00
666.00;975.56
668.00;972.39
670.00;974.88
672.00;973.09
674.00;973.50
676.00;975.86
678.00;973.64
680.00;973.01
682.00;972.09
684.00;970.09
686.00;974.45
688.00;973.35
690.00;971.87
692.00;977.27
694.00;980.07
696.00;979.35
698.00;977.36
700.00;976.98
702.00;972.35
704.00;974.21
706.00;977.70
708.00;976.38
710.00;973.89
712.00;975.96
714.00;972.31
716.00;973.08
718.00;976.57
720.00;978.18
722.00;976.00
724.00;976.17
726.00;970.60
728.00;973.91
730.00;978.81
732.00;977.91
734.00;973.22
736.00;972.45
738.00;973.63
740.00;972.65
742.00;967.42
744.00;970.13
746.00;970.09
748.00;964.68
750.00;963.65
752.00;969.43
754.00;972.99
756.00;970.68
758.00;969.52
760.00;970.02
762.00;970.86
764.00;971.55
766.00;970.32
768.00;966.13
770.00;965.91
772.00;967.56
774.00;963.40
776.00;964.11
778.00;961.48
780.00;962.08
782.00;966.64
784.00;960.60
786.00;962.61
788.00;963.43
790.00;961.85
792.00;963.24
794.00;961.99
796.00;958.56
798.00;965.67
800.00;964.19
802.00;959.80
804.00;964.97
806.00;967.62
808.00;968.04
810.00;971.07
812.00;975.65
814.00;980.22
816.00;981.71
818.00;979.03
820.00;973.18
822.00;970.17
824.00;967.26
826.00;966.76
828.00;970.30
830.00;974.25
832.00;963.36
834.00;965.97
836.00;965.40
838.00;967.60
840.00;972.82
842.00;977.16
844.00;979.80
846.00;987.65
848.00;993.93
850.00;994.91
852.00;1000.84
854.00;1001.93
856.00;1007.68
858.00;1002.62
860.00;1001.30
862.00;999.26
864.00;997.77
866.00;994.00
868.00;993.47
870.00;997.42
872.00;996.24
874.00;995.80
876.00;990.17
878.00;993.26
880.00;987.36
882.00;984.57
884.00;983.68
886.00;985.67
888.00;976.67
890.00;984.99
892.00;980.84
894.00;971.81
896.00;972.01
898.00;972.57
900.00;970.45
902.00;976.84
904.00;970.69
906.00;966.51
908.00;967.16
910.00;970.12
912.00;980.90
914.00;989.71
916.00;996.23
918.00;1009.77
920.00;1010.56
922.00;1009.36
924.00;1015.06
926.00;1010.33
928.00;1002.19
930.00;1008.90
932.00;1008.79
934.00;1010.00
936.00;1016.64
938.00;1020.04
940.00;1025.94
942.00;1025.77
944.00;1043.06
946.00;1054.67
948.00;1075.95
950.00;1105.80
952.00;1135.34
954.00;1163.37
956.00;1195.87
958.00;1213.11
960.00;1210.27
962.00;1200.00
964.00;1165.61
966.00;1117.97
968.00;1087.76
970.00;1054.64
972.00;1020.65
974.00;999.85
976.00;984.07
978.00;967.23
980.00;959.73
982.00;951.20
984.00;945.07
986.00;943.03
988.00;940.94
990.00;938.57
992.00;936.39
994.00;931.73
996.00;938.14
998.00;942.17
1000.00;954.11
1002.00;955.71
1004.00;958.42
1006.00;955.31
1008.00;947.07
1010.00;939.95
1012.00;936.01
1014.00;937.56
1016.00;934.13
1018.00;938.46
1020.00;942.33
1022.00;939.58
1024.00;941.67
1026.00;947.06
1028.00;946.10
1030.00;944.70
1032.00;947.53
1034.00;955.43
1036.00;952.09
1038.00;954.81
1040.00;949.82
1042.00;945.29
1044.00;947.74
1046.00;952.26
1048.00;946.56
1050.00;948.34
1052.00;947.15
1054.00;950.00
1056.00;947.09
1058.00;941.53
1060.00;948.57
1062.00;953.10
1064.00;955.87
1066.00;961.40
1068.00;961.94
1070.00;959.82
1072.00;958.85
1074.00;955.40
1076.00;952.08
1078.00;951.34
1080.00;942.36
1082.00;937.52
1084.00;931.51
1086.00;931.27
1088.00;923.55
1090.00;924.33
1092.00;924.94
1094.00;917.61
1096.00;912.94
1098.00;908.12
1100.00;911.00
1102.00;910.14
1104.00;910.84
1106.00;912.18
1108.00;911.72
1110.00;906.02
1112.00;899.96
1114.00;894.82
1116.00;888.88
1118.00;888.33
1120.00;886.79
1122.00;881.36
1124.00;880.89
1126.00;882.79
1128.00;891.49
1130.00;885.74
1132.00;880.28
1134.00;878.31
1136.00;874.09
1138.00;873.49
1140.00;867.59
1142.00;872.11
1144.00;871.74
1146.00;874.76
1148.00;870.06
1150.00;863.72
1152.00;861.72
1154.00;869.39
1156.00;870.62
1158.00;867.92
1160.00;876.59
1162.00;872.78
1164.00;868.79
1166.00;869.22
1168.00;869.87
1170.00;869.57
1172.00;871.13
1174.00;874.79
1176.00;869.51
1178.00;872.43
1180.00;870.08
1182.00;864.07
1184.00;865.86
1186.00;871.44
1188.00;870.18
1190.00;867.25
1192.00;869.74
1194.00;869.88
1196.00;867.19
1198.00;869.97
1200.00;873.96
1202.00;872.12
1204.00;873.70
1206.00;872.04
1208.00;869.61
1210.00;873.70
1212.00;875.65
1214.00;866.21
1216.00;866.27
1218.00;861.45
1220.00;867.63
1222.00;869.13
1224.00;868.25
1226.00;868.02
1228.00;875.99
1230.00;882.48
1232.00;885.75
1234.00;885.28
1236.00;896.45
1238.00;904.03
1240.00;907.04
1242.00;919.18
1244.00;915.43
1246.00;917.47
1248.00;917.31
1250.00;915.06
1252.00;911.30
1254.00;905.59
1256.00;909.80
1258.00;907.94
1260.00;903.58
1262.00;904.64
1264.00;902.65
1266.00;910.60
1268.00;913.31
1270.00;912.28
1272.00;906.55
1274.00;902.01
1276.00;899.37
1278.00;897.85
1280.00;895.91
1282.00;883.28
1284.00;878.96
1286.00;883.22
1288.00;877.28
1290.00;877.39
1292.00;874.81
1294.00;866.33
1296.00;865.29
1298.00;857.42
1300.00;857.01
1302.00;856.40
1304.00;856.28
1306.00;853.59
1308.00;851.81
1310.00;851.93
1312.00;854.13
1314.00;856.76
1316.00;858.31
1318.00;859.08
1320.00;865.75
1322.00;855.70
1324.00;858.05
1326.00;855.21
1328.00;848.50
1330.00;851.36
1332.00;856.92
1334.00;852.49
1336.00;851.62
1338.00;852.18
1340.00;848.85
1342.00;844.17
1344.00;850.91
1346.00;850.22
1348.00;851.90
1350.00;846.15
1352.00;842.13
1354.00;839.31
1356.00;837.05
1358.00;833.78
1360.00;831.55
1362.00;834.47
1364.00;827.23
1366.00;836.70
1368.00;834.88
1370.00;836.71
1372.00;839.23
1374.00;841.79
1376.00;844.05
1378.00;844.54
1380.00;838.77
1382.00;848.01
1384.00;845.90
1386.00;848.43
1388.00;848.64
1390.00;845.15
1392.00;839.30
1394.00;848.27
1396.00;843.62
1398.00;844.45
1400.00;848.71
1402.00;849.35
1404.00;851.58
1406.00;851.22
1408.00;853.68
1410.00;851.73
1412.00;854.36
1414.00;858.77
1416.00;852.18
1418.00;854.30
1420.00;857.36
1422.00;851.07
1424.00;862.44
1426.00;857.91
1428.00;854.04
1430.00;850.72
1432.00;854.81
1434.00;853.81
1436.00;852.52
1438.00;857.34
1440.00;863.56
1442.00;865.53
1444.00;874.86
1446.00;881.25
1448.00;878.99
1450.00;887.65
1452.00;889.42
1454.00;887.06
1456.00;880.74
1458.00;877.93
1460.00;877.71
1462.00;873.04
1464.00;870.73
1466.00;859.06
1468.00;849.96
1470.00;831.06
1472.00;832.43
1474.00;821.03
1476.00;814.72
1478.00;804.21
1480.00;802.73
1482.00;796.89
1484.00;790.05
1486.00;789.33
1488.00;787.22
1490.00;777.66
1492.00;779.59
1494.00;772.76
1496.00;767.65
1498.00;763.97
1500.00;763.76
1502.00;762.84
1504.00;763.03
1506.00;755.15
1508.00;765.07
1510.00;764.99
1512.00;757.27
1514.00;759.70
1516.00;754.64
1518.00;754.95
1520.00;763.93
1522.00;752.55
1524.00;755.07
1526.00;755.02
1528.00;762.60
1530.00;757.90
1532.00;748.90
1534.00;751.37
1536.00;756.80
1538.00;747.47
1540.00;744.81
1542.00;747.33
1544.00;743.98
1546.00;743.83
1548.00;748.45
1550.00;747.59
1552.00;747.73
1554.00;752.94
1556.00;750.87
1558.00;750.77
1560.00;747.18
1562.00;746.45
1564.00;747.55
1566.00;744.33
1568.00;740.74
1570.00;738.81
1572.00;741.90
1574.00;747.51
1576.00;747.98
1578.00;739.17
1580.00;741.64
1582.00;743.52
1584.00;748.86
1586.00;744.87
1588.00;742.17
1590.00;747.61
1592.00;741.91
1594.00;748.10
1596.00;737.43
1598.00;746.71
1600.00;747.07
1602.00;760.36
1604.00;737.55
1606.00;751.91
1608.00;745.77
1610.00;758.87
1612.00;752.49
1614.00;752.39
1616.00;751.31
1618.00;757.20
1620.00;760.23
1622.00;762.28
1624.00;770.78
1626.00;767.72
1628.00;770.30
1630.00;775.28
1632.00;777.34
1634.00;780.18
1636.00;777.71
1638.00;785.93
1640.00;789.45
1642.00;787.54
1644.00;781.22
1646.00;791.83
1648.00;783.01
1650.00;778.94
1652.00;777.04
1654.00;785.01
1656.00;785.92
1658.00;788.08
1660.00;797.99
1662.00;796.69
1664.00;788.41
1666.00;798.87
1668.00;791.88
1670.00;787.93
1672.00;785.78
1674.00;780.74
1676.00;777.81
1678.00;783.29
1680.00;772.61
1682.00;765.33
1684.00;756.20
1686.00;743.00
1688.00;746.26
1690.00;741.74
1692.00;731.17
1694.00;724.14
1696.00;722.92
1698.00;709.31
1700.00;711.39
1702.00;705.36
1704.00;697.45
1706.00;695.76
1708.00;692.92
1710.00;689.68
1712.00;689.74
1714.00;684.55
1716.00;681.72
1718.00;684.55
1720.00;679.92
1722.00;677.93
1724.00;677.47
1726.00;674.57
1728.00;664.03
1730.00;667.46
1732.00;665.04
1734.00;658.48
1736.00;668.55
1738.00;655.12
1740.00;663.35
1742.00;663.55
1744.00;666.33
1746.00;660.88
1748.00;657.46
1750.00;654.15
1752.00;661.24
1754.00;662.46
1756.00;660.04
1758.00;658.68
1760.00;653.24
1762.00;649.22
1764.00;659.79
1766.00;654.14
1768.00;659.21
1770.00;653.57
1772.00;648.57
1774.00;651.27
1776.00;651.99
1778.00;652.74
1780.00;646.11
1782.00;650.36
1784.00;648.22
1786.00;635.53
1788.00;638.84
1790.00;645.40
1792.00;641.90
1794.00;648.38
1796.00;640.58
1798.00;645.60
1800.00;649.86
1802.00;639.82
1804.00;642.54
1806.00;633.37
1808.00;633.20
1810.00;635.67
1812.00;635.68
1814.00;632.99
1816.00;620.21
1818.00;630.55
1820.00;621.66
1822.00;634.92
1824.00;628.75
1826.00;629.88
1828.00;628.07
1830.00;638.51
1832.00;622.07
1834.00;633.64
1836.00;629.14
1838.00;626.23
1840.00;626.57
1842.00;628.53
1844.00;629.80
1846.00;624.07
1848.00;633.97
1850.00;615.42
1852.00;621.09
1854.00;615.43
1856.00;611.30
1858.00;615.79
1860.00;618.65
1862.00;614.42
1864.00;616.35
1866.00;610.33
1868.00;607.39
1870.00;607.12
1872.00;615.15
1874.00;611.58
1876.00;608.84
1878.00;605.74
1880.00;603.67
1882.00;607.74
1884.00;598.82
1886.00;601.53
1888.00;599.93
1890.00;601.54
1892.00;602.36
1894.00;600.23
1896.00;605.81
1898.00;598.14
1900.00;593.30
1902.00;598.53
1904.00;592.36
1906.00;588.45
1908.00;595.78
1910.00;600.63
1912.00;603.45
1914.00;593.30
1916.00;590.93
1918.00;590.50
1920.00;596.96
1922.00;595.74
1924.00;592.29
1926.00;594.36
1928.00;591.48
1930.00;581.70
1932.00;582.98
1934.00;588.65
1936.00;582.61
1938.00;584.29
1940.00;581.10
1942.00;579.57
1944.00;591.17
1946.00;583.31
1948.00;578.17
1950.00;581.03
1952.00;589.63
1954.00;585.33
1956.00;580.90
1958.00;582.90
1960.00;581.56
1962.00;579.67
1964.00;574.10
1966.00;566.70
1968.00;574.19
1970.00;568.79
1972.00;568.18
1974.00;575.75
1976.00;569.02
1978.00;568.61
1980.00;557.39
1982.00;559.61
1984.00;571.51
1986.00;562.90
1988.00;565.56
1990.00;564.98
1992.00;568.30
1994.00;553.44
1996.00;565.64
1998.00;571.99
2000.00;566.99
2002.00;545.76
2004.00;561.19
2006.00;561.02
2008.00;562.48
2010.00;565.01
2012.00;560.44
2014.00;563.72
2016.00;562.96
2018.00;565.39
2020.00;553.19
2022.00;557.14
2024.00;554.00
2026.00;555.69
2028.00;546.61
2030.00;549.71
2032.00;553.59
2034.00;553.31
2036.00;554.25
2038.00;554.70
2040.00;534.63
2042.00;545.53
2044.00;545.52
2046.00;545.23
2048.00;552.15
2050.00;542.85
2052.00;550.75
2054.00;545.84
2056.00;538.78
2058.00;547.52
2060.00;552.21
2062.00;538.41
2064.00;549.73
2066.00;545.82
2068.00;546.72
2070.00;541.79
2072.00;533.85
2074.00;536.01
2076.00;542.23
2078.00;533.80
2080.00;547.07
2082.00;539.21
2084.00;530.27
2086.00;543.24
2088.00;536.19
2090.00;532.08
2092.00;544.16
2094.00;519.53
2096.00;544.72
2098.00;529.34
2100.00;527.83
2102.00;516.40
2104.00;537.03
2106.00;524.14
2108.00;525.36
2110.00;526.50
2112.00;526.66
2114.00;531.11
2116.00;531.98
2118.00;516.28
2120.00;527.59
2122.00;512.20
2124.00;524.33
2126.00;533.65
2128.00;520.87
2130.00;513.12
2132.00;524.84
2134.00;508.89
2136.00;523.14
2138.00;514.69
2140.00;520.49
2142.00;507.31
2144.00;495.84
2146.00;509.94
2148.00;515.54
2150.00;525.60
2152.00;511.15
2154.00;511.37
2156.00;509.34
2158.00;508.42
2160.00;509.55
2162.00;496.27
2164.00;511.38
2166.00;513.47
2168.00;516.83
2170.00;512.11
2172.00;510.87
2174.00;506.07
2176.00;500.45
2178.00;512.37
2180.00;494.19
2182.00;507.93
2184.00;507.40
2186.00;515.98
2188.00;502.35
2190.00;504.59
2192.00;496.51
2194.00;503.45
2196.00;488.81
2198.00;518.66
2200.00;501.21
2202.00;507.21
2204.00;505.57
2206.00;493.44
2208.00;506.00
2210.00;504.93
2212.00;503.70
2214.00;511.45
2216.00;497.20
2218.00;488.72
2220.00;497.14
2222.00;496.46
2224.00;491.66
2226.00;496.54
2228.00;487.40
2230.00;503.57
2232.00;497.27
2234.00;500.15
2236.00;483.12
2238.00;459.33
2240.00;488.28
2242.00;471.96
2244.00;476.89
2246.00;472.58
2248.00;485.17
2250.00;471.31
2252.00;468.41
2254.00;478.26
2256.00;477.16
2258.00;478.84
2260.00;487.65
2262.00;480.87
2264.00;478.92
2266.00;483.44
2268.00;482.53
2270.00;482.00
2272.00;476.96
2274.00;461.37
2276.00;477.85
2278.00;473.93
2280.00;475.85
2282.00;474.56
2284.00;487.92
2286.00;472.47
2288.00;474.18
2290.00;470.35
2292.00;469.77
2294.00;452.55
2296.00;464.60
2298.00;475.49
2300.00;461.06
[ANALYSIS RESULT]
Analysis_Type;None
